(* awk '{print $1-1719435972 " " $2}' hpl.results *)

newgraph
X 9
Y 3

title fontsize 16 y 80 : HPL (N=16k), OrangePi

yaxis size 2 min 0 max 2000
label font Helvetica fontsize 14 : Frequency (kHz)
hash_labels font Helvetica fontsize 14

xaxis size 8 (* min 0 max 490 *)
label font Helvetica fontsize 14 : Time (s)
hash_labels font Helvetica fontsize 14

newcurve
linetype solid color 1.0 0.0 0.0
pts
-0.273127 408
0.718642 408
1.7265 408
2.71822 408
3.72602 408
4.71782 408
5.72564 408
6.71743 408
7.70923 408
8.71704 600
9.72484 408
10.7166 408
11.7084 408
12.7162 408
13.724 408
14.7158 600
15.7076 408
16.7154 408
17.7233 408
18.715 408
19.7068 408
20.7146 408
21.7064 408
22.7142 408
23.706 408
24.7138 408
25.7056 408
26.7134 408
27.7052 408
28.713 408
29.7047 408
30.7126 408
31.7044 408
32.7122 408
33.7039 408
34.7117 1416
35.7195 1416
36.7114 408
37.7031 408
38.711 408
39.7027 408
40.7105 408
41.7023 408
42.7102 408
43.7019 408
44.7097 408
45.7015 408
46.7094 408
47.7011 408
48.7089 408
49.7169 1416
50.7087 1416
51.7005 1416
52.7082 1416
53.7 1416
54.7078 1416
55.7156 1416
56.7074 1416
57.6992 1416
58.7071 1416
59.7148 1416
60.7065 1416
61.6984 1416
62.7062 1416
63.714 1416
64.7057 1416
65.7135 1416
66.7054 1416
67.7132 1416
68.705 1416
69.7128 1416
70.7046 1416
71.7124 1416
72.7042 1416
73.7118 1416
74.7038 1416
75.7115 1416
76.7034 1416
77.7112 1416
78.7029 1416
79.7108 1416
80.7024 1416
81.7104 1416
82.7021 1416
83.7099 1416
84.7017 1416
85.7095 1416
86.7013 1416
87.7091 1416
88.7009 1416
89.7088 1416
90.7005 1416
91.7083 1416
92.7001 1416
93.7079 1416
94.6997 1416
95.7073 1416
96.6991 1416
97.7071 1416
98.6988 1416
99.7067 1416
100.698 1416
101.706 1416
102.698 1416
103.706 1416
104.714 1416
105.705 1416
106.697 1416
107.705 1416
108.697 1416
109.705 1416
110.712 1416
111.704 1416
112.696 1416
113.704 1416
114.712 1416
115.703 1416
116.695 1416
117.703 1416
118.711 1416
119.703 1416
120.694 1416
121.702 1416
122.694 1416
123.702 1416
124.71 1416
125.701 1416
126.693 1416
127.701 1416
128.709 1416
129.701 1416
130.692 1416
131.7 1416
132.708 1416
133.7 1416
134.692 1416
135.699 1416
136.707 1416
137.699 1416
138.691 1416
139.698 1416
140.69 1416
141.698 1416
142.69 1416
143.698 1416
144.689 1416
145.697 1416
146.705 1416
147.697 1416
148.689 1416
149.696 1416
150.704 1416
151.696 1416
152.688 1416
153.696 1416
154.687 1416
155.695 1416
156.687 1416
157.695 1416
158.687 1416
159.694 1416
160.686 1416
161.694 1416
162.686 1416
163.694 1416
164.701 1416
165.693 1416
166.685 1416
167.693 1416
168.685 1416
169.692 1416
170.684 1416
171.692 1416
172.684 1416
173.692 1416
174.683 1416
175.691 1416
176.683 1416
177.691 1416
178.683 1416
179.69 1416
180.682 1416
181.69 1416
182.698 1416
183.69 1416
184.681 1416
185.689 1416
186.681 1416
187.689 1416
188.681 1416
189.688 1416
190.68 1416
191.688 1416
192.68 1416
193.687 1416
194.679 1416
195.687 1416
196.695 1416
197.687 1416
198.679 1416
199.686 1416
200.678 1416
201.686 1416
202.678 1416
203.686 1416
204.677 1416
205.685 1416
206.677 1416
207.685 1416
208.676 1416
209.684 1416
210.676 1416
211.684 1416
212.676 1416
213.683 1416
214.675 1416
215.683 1416
216.675 1416
217.683 1416
218.674 1416
219.682 1416
220.674 1416
221.682 1416
222.673 1416
223.681 1416
224.673 1416
225.681 1416
226.673 1416
227.681 1416
228.672 1416
229.68 1416
230.672 1416
231.68 1416
232.672 1416
233.679 1416
234.671 1416
235.679 1416
236.671 1416
237.679 1416
238.67 1416
239.678 1416
240.67 1416
241.678 1416
242.67 1416
243.677 1416
244.669 1416
245.661 1416
246.669 1416
247.676 1416
248.668 1416
249.66 1416
250.668 1416
251.676 1416
252.668 1416
253.659 1416
254.667 1416
255.675 1416
256.667 1416
257.658 1416
258.666 1416
259.658 1416
260.666 1416
261.658 1416
262.665 1416
263.657 1416
264.665 1416
265.657 1416
266.665 1416
267.656 1416
268.664 1416
269.656 1416
270.664 1416
271.655 1416
272.663 1416
273.655 408
274.663 408
275.655 408
276.663 408
277.654 408
278.662 408
279.654 408
280.662 408
281.654 408
282.661 408
283.653 408
284.661 408
285.653 408
286.661 408
287.652 408
288.66 1416
289.652 1416
290.66 408
291.651 408
292.659 408
293.651 408
294.659 408
295.651 408
296.658 408
297.65 408
298.658 408
299.65 408
300.658 408
301.665 408
302.657 408
303.649 408

newcurve
linetype solid color 1.0 0.2 0.0
pts
-0.273127 408
0.718642 408
1.7265 408
2.71822 408
3.72602 408
4.71782 408
5.72564 408
6.71743 408
7.70923 408
8.71704 600
9.72484 408
10.7166 408
11.7084 408
12.7162 408
13.724 408
14.7158 600
15.7076 408
16.7154 408
17.7233 408
18.715 408
19.7068 408
20.7146 408
21.7064 408
22.7142 408
23.706 408
24.7138 408
25.7056 408
26.7134 408
27.7052 408
28.713 408
29.7047 408
30.7126 408
31.7044 408
32.7122 408
33.7039 408
34.7117 1416
35.7195 1416
36.7114 408
37.7031 408
38.711 408
39.7027 408
40.7105 408
41.7023 408
42.7102 408
43.7019 408
44.7097 408
45.7015 408
46.7094 408
47.7011 408
48.7089 408
49.7169 1416
50.7087 1416
51.7005 1416
52.7082 1416
53.7 1416
54.7078 1416
55.7156 1416
56.7074 1416
57.6992 1416
58.7071 1416
59.7148 1416
60.7065 1416
61.6984 1416
62.7062 1416
63.714 1416
64.7057 1416
65.7135 1416
66.7054 1416
67.7132 1416
68.705 1416
69.7128 1416
70.7046 1416
71.7124 1416
72.7042 1416
73.7118 1416
74.7038 1416
75.7115 1416
76.7034 1416
77.7112 1416
78.7029 1416
79.7108 1416
80.7024 1416
81.7104 1416
82.7021 1416
83.7099 1416
84.7017 1416
85.7095 1416
86.7013 1416
87.7091 1416
88.7009 1416
89.7088 1416
90.7005 1416
91.7083 1416
92.7001 1416
93.7079 1416
94.6997 1416
95.7073 1416
96.6991 1416
97.7071 1416
98.6988 1416
99.7067 1416
100.698 1416
101.706 1416
102.698 1416
103.706 1416
104.714 1416
105.705 1416
106.697 1416
107.705 1416
108.697 1416
109.705 1416
110.712 1416
111.704 1416
112.696 1416
113.704 1416
114.712 1416
115.703 1416
116.695 1416
117.703 1416
118.711 1416
119.703 1416
120.694 1416
121.702 1416
122.694 1416
123.702 1416
124.71 1416
125.701 1416
126.693 1416
127.701 1416
128.709 1416
129.701 1416
130.692 1416
131.7 1416
132.708 1416
133.7 1416
134.692 1416
135.699 1416
136.707 1416
137.699 1416
138.691 1416
139.698 1416
140.69 1416
141.698 1416
142.69 1416
143.698 1416
144.689 1416
145.697 1416
146.705 1416
147.697 1416
148.689 1416
149.696 1416
150.704 1416
151.696 1416
152.688 1416
153.696 1416
154.687 1416
155.695 1416
156.687 1416
157.695 1416
158.687 1416
159.694 1416
160.686 1416
161.694 1416
162.686 1416
163.694 1416
164.701 1416
165.693 1416
166.685 1416
167.693 1416
168.685 1416
169.692 1416
170.684 1416
171.692 1416
172.684 1416
173.692 1416
174.683 1416
175.691 1416
176.683 1416
177.691 1416
178.683 1416
179.69 1416
180.682 1416
181.69 1416
182.698 1416
183.69 1416
184.681 1416
185.689 1416
186.681 1416
187.689 1416
188.681 1416
189.688 1416
190.68 1416
191.688 1416
192.68 1416
193.687 1416
194.679 1416
195.687 1416
196.695 1416
197.687 1416
198.679 1416
199.686 1416
200.678 1416
201.686 1416
202.678 1416
203.686 1416
204.677 1416
205.685 1416
206.677 1416
207.685 1416
208.676 1416
209.684 1416
210.676 1416
211.684 1416
212.676 1416
213.683 1416
214.675 1416
215.683 1416
216.675 1416
217.683 1416
218.674 1416
219.682 1416
220.674 1416
221.682 1416
222.673 1416
223.681 1416
224.673 1416
225.681 1416
226.673 1416
227.681 1416
228.672 1416
229.68 1416
230.672 1416
231.68 1416
232.672 1416
233.679 1416
234.671 1416
235.679 1416
236.671 1416
237.679 1416
238.67 1416
239.678 1416
240.67 1416
241.678 1416
242.67 1416
243.677 1416
244.669 1416
245.661 1416
246.669 1416
247.676 1416
248.668 1416
249.66 1416
250.668 1416
251.676 1416
252.668 1416
253.659 1416
254.667 1416
255.675 1416
256.667 1416
257.658 1416
258.666 1416
259.658 1416
260.666 1416
261.658 1416
262.665 1416
263.657 1416
264.665 1416
265.657 1416
266.665 1416
267.656 1416
268.664 1416
269.656 1416
270.664 1416
271.655 1416
272.663 1416
273.655 408
274.663 408
275.655 408
276.663 408
277.654 408
278.662 408
279.654 408
280.662 408
281.654 408
282.661 408
283.653 408
284.661 408
285.653 408
286.661 408
287.652 408
288.66 1416
289.652 1416
290.66 408
291.651 408
292.659 408
293.651 408
294.659 408
295.651 408
296.658 408
297.65 408
298.658 408
299.65 408
300.658 408
301.665 408
302.657 408
303.649 408


newcurve
linetype solid color 1.0 0.4 0.0
pts
-0.273127 408
0.718642 408
1.7265 408
2.71822 408
3.72602 408
4.71782 408
5.72564 408
6.71743 408
7.70923 408
8.71704 600
9.72484 408
10.7166 408
11.7084 408
12.7162 408
13.724 408
14.7158 600
15.7076 408
16.7154 408
17.7233 408
18.715 408
19.7068 408
20.7146 408
21.7064 408
22.7142 408
23.706 408
24.7138 408
25.7056 408
26.7134 408
27.7052 408
28.713 408
29.7047 408
30.7126 408
31.7044 408
32.7122 408
33.7039 408
34.7117 1416
35.7195 1416
36.7114 408
37.7031 408
38.711 408
39.7027 408
40.7105 408
41.7023 408
42.7102 408
43.7019 408
44.7097 408
45.7015 408
46.7094 408
47.7011 408
48.7089 408
49.7169 1416
50.7087 1416
51.7005 1416
52.7082 1416
53.7 1416
54.7078 1416
55.7156 1416
56.7074 1416
57.6992 1416
58.7071 1416
59.7148 1416
60.7065 1416
61.6984 1416
62.7062 1416
63.714 1416
64.7057 1416
65.7135 1416
66.7054 1416
67.7132 1416
68.705 1416
69.7128 1416
70.7046 1416
71.7124 1416
72.7042 1416
73.7118 1416
74.7038 1416
75.7115 1416
76.7034 1416
77.7112 1416
78.7029 1416
79.7108 1416
80.7024 1416
81.7104 1416
82.7021 1416
83.7099 1416
84.7017 1416
85.7095 1416
86.7013 1416
87.7091 1416
88.7009 1416
89.7088 1416
90.7005 1416
91.7083 1416
92.7001 1416
93.7079 1416
94.6997 1416
95.7073 1416
96.6991 1416
97.7071 1416
98.6988 1416
99.7067 1416
100.698 1416
101.706 1416
102.698 1416
103.706 1416
104.714 1416
105.705 1416
106.697 1416
107.705 1416
108.697 1416
109.705 1416
110.712 1416
111.704 1416
112.696 1416
113.704 1416
114.712 1416
115.703 1416
116.695 1416
117.703 1416
118.711 1416
119.703 1416
120.694 1416
121.702 1416
122.694 1416
123.702 1416
124.71 1416
125.701 1416
126.693 1416
127.701 1416
128.709 1416
129.701 1416
130.692 1416
131.7 1416
132.708 1416
133.7 1416
134.692 1416
135.699 1416
136.707 1416
137.699 1416
138.691 1416
139.698 1416
140.69 1416
141.698 1416
142.69 1416
143.698 1416
144.689 1416
145.697 1416
146.705 1416
147.697 1416
148.689 1416
149.696 1416
150.704 1416
151.696 1416
152.688 1416
153.696 1416
154.687 1416
155.695 1416
156.687 1416
157.695 1416
158.687 1416
159.694 1416
160.686 1416
161.694 1416
162.686 1416
163.694 1416
164.701 1416
165.693 1416
166.685 1416
167.693 1416
168.685 1416
169.692 1416
170.684 1416
171.692 1416
172.684 1416
173.692 1416
174.683 1416
175.691 1416
176.683 1416
177.691 1416
178.683 1416
179.69 1416
180.682 1416
181.69 1416
182.698 1416
183.69 1416
184.681 1416
185.689 1416
186.681 1416
187.689 1416
188.681 1416
189.688 1416
190.68 1416
191.688 1416
192.68 1416
193.687 1416
194.679 1416
195.687 1416
196.695 1416
197.687 1416
198.679 1416
199.686 1416
200.678 1416
201.686 1416
202.678 1416
203.686 1416
204.677 1416
205.685 1416
206.677 1416
207.685 1416
208.676 1416
209.684 1416
210.676 1416
211.684 1416
212.676 1416
213.683 1416
214.675 1416
215.683 1416
216.675 1416
217.683 1416
218.674 1416
219.682 1416
220.674 1416
221.682 1416
222.673 1416
223.681 1416
224.673 1416
225.681 1416
226.673 1416
227.681 1416
228.672 1416
229.68 1416
230.672 1416
231.68 1416
232.672 1416
233.679 1416
234.671 1416
235.679 1416
236.671 1416
237.679 1416
238.67 1416
239.678 1416
240.67 1416
241.678 1416
242.67 1416
243.677 1416
244.669 1416
245.661 1416
246.669 1416
247.676 1416
248.668 1416
249.66 1416
250.668 1416
251.676 1416
252.668 1416
253.659 1416
254.667 1416
255.675 1416
256.667 1416
257.658 1416
258.666 1416
259.658 1416
260.666 1416
261.658 1416
262.665 1416
263.657 1416
264.665 1416
265.657 1416
266.665 1416
267.656 1416
268.664 1416
269.656 1416
270.664 1416
271.655 1416
272.663 1416
273.655 408
274.663 408
275.655 408
276.663 408
277.654 408
278.662 408
279.654 408
280.662 408
281.654 408
282.661 408
283.653 408
284.661 408
285.653 408
286.661 408
287.652 408
288.66 1416
289.652 1416
290.66 408
291.651 408
292.659 408
293.651 408
294.659 408
295.651 408
296.658 408
297.65 408
298.658 408
299.65 408
300.658 408
301.665 408
302.657 408
303.649 408

newcurve
linetype solid color 1.0 0.6 0.0
pts

-0.273127 408
0.718642 408
1.7265 408
2.71822 408
3.72602 408
4.71782 408
5.72564 408
6.71743 408
7.70923 408
8.71704 600
9.72484 408
10.7166 408
11.7084 408
12.7162 408
13.724 408
14.7158 600
15.7076 408
16.7154 408
17.7233 408
18.715 408
19.7068 408
20.7146 408
21.7064 408
22.7142 408
23.706 408
24.7138 408
25.7056 408
26.7134 408
27.7052 408
28.713 408
29.7047 408
30.7126 408
31.7044 408
32.7122 408
33.7039 408
34.7117 1416
35.7195 1416
36.7114 408
37.7031 408
38.711 408
39.7027 408
40.7105 408
41.7023 408
42.7102 408
43.7019 408
44.7097 408
45.7015 408
46.7094 408
47.7011 408
48.7089 408
49.7169 1416
50.7087 1416
51.7005 1416
52.7082 1416
53.7 1416
54.7078 1416
55.7156 1416
56.7074 1416
57.6992 1416
58.7071 1416
59.7148 1416
60.7065 1416
61.6984 1416
62.7062 1416
63.714 1416
64.7057 1416
65.7135 1416
66.7054 1416
67.7132 1416
68.705 1416
69.7128 1416
70.7046 1416
71.7124 1416
72.7042 1416
73.7118 1416
74.7038 1416
75.7115 1416
76.7034 1416
77.7112 1416
78.7029 1416
79.7108 1416
80.7024 1416
81.7104 1416
82.7021 1416
83.7099 1416
84.7017 1416
85.7095 1416
86.7013 1416
87.7091 1416
88.7009 1416
89.7088 1416
90.7005 1416
91.7083 1416
92.7001 1416
93.7079 1416
94.6997 1416
95.7073 1416
96.6991 1416
97.7071 1416
98.6988 1416
99.7067 1416
100.698 1416
101.706 1416
102.698 1416
103.706 1416
104.714 1416
105.705 1416
106.697 1416
107.705 1416
108.697 1416
109.705 1416
110.712 1416
111.704 1416
112.696 1416
113.704 1416
114.712 1416
115.703 1416
116.695 1416
117.703 1416
118.711 1416
119.703 1416
120.694 1416
121.702 1416
122.694 1416
123.702 1416
124.71 1416
125.701 1416
126.693 1416
127.701 1416
128.709 1416
129.701 1416
130.692 1416
131.7 1416
132.708 1416
133.7 1416
134.692 1416
135.699 1416
136.707 1416
137.699 1416
138.691 1416
139.698 1416
140.69 1416
141.698 1416
142.69 1416
143.698 1416
144.689 1416
145.697 1416
146.705 1416
147.697 1416
148.689 1416
149.696 1416
150.704 1416
151.696 1416
152.688 1416
153.696 1416
154.687 1416
155.695 1416
156.687 1416
157.695 1416
158.687 1416
159.694 1416
160.686 1416
161.694 1416
162.686 1416
163.694 1416
164.701 1416
165.693 1416
166.685 1416
167.693 1416
168.685 1416
169.692 1416
170.684 1416
171.692 1416
172.684 1416
173.692 1416
174.683 1416
175.691 1416
176.683 1416
177.691 1416
178.683 1416
179.69 1416
180.682 1416
181.69 1416
182.698 1416
183.69 1416
184.681 1416
185.689 1416
186.681 1416
187.689 1416
188.681 1416
189.688 1416
190.68 1416
191.688 1416
192.68 1416
193.687 1416
194.679 1416
195.687 1416
196.695 1416
197.687 1416
198.679 1416
199.686 1416
200.678 1416
201.686 1416
202.678 1416
203.686 1416
204.677 1416
205.685 1416
206.677 1416
207.685 1416
208.676 1416
209.684 1416
210.676 1416
211.684 1416
212.676 1416
213.683 1416
214.675 1416
215.683 1416
216.675 1416
217.683 1416
218.674 1416
219.682 1416
220.674 1416
221.682 1416
222.673 1416
223.681 1416
224.673 1416
225.681 1416
226.673 1416
227.681 1416
228.672 1416
229.68 1416
230.672 1416
231.68 1416
232.672 1416
233.679 1416
234.671 1416
235.679 1416
236.671 1416
237.679 1416
238.67 1416
239.678 1416
240.67 1416
241.678 1416
242.67 1416
243.677 1416
244.669 1416
245.661 1416
246.669 1416
247.676 1416
248.668 1416
249.66 1416
250.668 1416
251.676 1416
252.668 1416
253.659 1416
254.667 1416
255.675 1416
256.667 1416
257.658 1416
258.666 1416
259.658 1416
260.666 1416
261.658 1416
262.665 1416
263.657 1416
264.665 1416
265.657 1416
266.665 1416
267.656 1416
268.664 1416
269.656 1416
270.664 1416
271.655 1416
272.663 1416
273.655 408
274.663 408
275.655 408
276.663 408
277.654 408
278.662 408
279.654 408
280.662 408
281.654 408
282.661 408
283.653 408
284.661 408
285.653 408
286.661 408
287.652 408
288.66 1416
289.652 1416
290.66 408
291.651 408
292.659 408
293.651 408
294.659 408
295.651 408
296.658 408
297.65 408
298.658 408
299.65 408
300.658 408
301.665 408
302.657 408
303.649 408


newcurve
linetype solid color 0.0 0.0 1.0
pts
-0.273127 408
0.718642 408
1.7265 408
2.71822 408
3.72602 408
4.71782 408
5.72564 408
6.71743 408
7.70923 408
8.71704 408
9.72484 408
10.7166 408
11.7084 408
12.7162 408
13.724 408
14.7158 408
15.7076 408
16.7154 408
17.7233 408
18.715 408
19.7068 408
20.7146 408
21.7064 408
22.7142 408
23.706 408
24.7138 408
25.7056 408
26.7134 408
27.7052 408
28.713 408
29.7047 408
30.7126 408
31.7044 408
32.7122 408
33.7039 408
34.7117 1800
35.7195 1800
36.7114 1800
37.7031 1800
38.711 1800
39.7027 1800
40.7105 1800
41.7023 1800
42.7102 1800
43.7019 1800
44.7097 1800
45.7015 1800
46.7094 1800
47.7011 1800
48.7089 1800
49.7169 1800
50.7087 1800
51.7005 1800
52.7082 1800
53.7 1800
54.7078 1608
55.7156 1800
56.7074 1800
57.6992 1800
58.7071 1512
59.7148 1416
60.7065 1608
61.6984 1416
62.7062 1200
63.714 1416
64.7057 1416
65.7135 1800
66.7054 1416
67.7132 1200
68.705 1008
69.7128 1200
70.7046 1200
71.7124 1008
72.7042 1008
73.7118 1800
74.7038 1008
75.7115 1008
76.7034 1008
77.7112 816
78.7029 816
79.7108 816
80.7024 1008
81.7104 1200
82.7021 816
83.7099 1008
84.7017 816
85.7095 1008
86.7013 816
87.7091 816
88.7009 1200
89.7088 1008
90.7005 816
91.7083 816
92.7001 816
93.7079 816
94.6997 600
95.7073 816
96.6991 1416
97.7071 1008
98.6988 816
99.7067 600
100.698 600
101.706 600
102.698 816
103.706 1008
104.714 1416
105.705 816
106.697 816
107.705 600
108.697 600
109.705 600
110.712 600
111.704 1200
112.696 816
113.704 816
114.712 600
115.703 600
116.695 600
117.703 600
118.711 1008
119.703 1416
120.694 816
121.702 600
122.694 600
123.702 408
124.71 408
125.701 1008
126.693 1008
127.701 816
128.709 816
129.701 600
130.692 600
131.7 600
132.708 816
133.7 1008
134.692 1008
135.699 408
136.707 408
137.699 408
138.691 600
139.698 600
140.69 1008
141.698 1416
142.69 816
143.698 600
144.689 600
145.697 600
146.705 816
147.697 1008
148.689 1200
149.696 600
150.704 408
151.696 408
152.688 408
153.696 816
154.687 1008
155.695 1008
156.687 600
157.695 600
158.687 600
159.694 408
160.686 1008
161.694 1416
162.686 1008
163.694 816
164.701 408
165.693 408
166.685 816
167.693 1416
168.685 816
169.692 408
170.684 408
171.692 408
172.684 816
173.692 1200
174.683 600
175.691 408
176.683 600
177.691 408
178.683 816
179.69 1008
180.682 600
181.69 600
182.698 408
183.69 408
184.681 816
185.689 1200
186.681 1008
187.689 408
188.681 408
189.688 600
190.68 816
191.688 1008
192.68 600
193.687 600
194.679 408
195.687 1008
196.695 1200
197.687 816
198.679 408
199.686 408
200.678 816
201.686 1008
202.678 600
203.686 600
204.677 408
205.685 1008
206.677 408
207.685 408
208.676 408
209.684 816
210.676 1008
211.684 408
212.676 408
213.683 600
214.675 1008
215.683 816
216.675 408
217.683 408
218.674 1008
219.682 816
220.674 408
221.682 408
222.673 1008
223.681 816
224.673 408
225.681 408
226.673 1008
227.681 600
228.672 600
229.68 408
230.672 1008
231.68 408
232.672 408
233.679 1008
234.671 816
235.679 408
236.671 1008
237.679 816
238.67 408
239.678 816
240.67 600
241.678 408
242.67 1008
243.677 408
244.669 600
245.661 816
246.669 408
247.676 816
248.668 408
249.66 600
250.668 600
251.676 600
252.668 816
253.659 408
254.667 600
255.675 408
256.667 600
257.658 1008
258.666 408
259.658 600
260.666 408
261.658 408
262.665 600
263.657 600
264.665 816
265.657 600
266.665 600
267.656 816
268.664 600
269.656 600
270.664 816
271.655 1416
272.663 1416
273.655 1416
274.663 1512
275.655 1608
276.663 1800
277.654 1608
278.662 1608
279.654 1800
280.662 1800
281.654 1608
282.661 1608
283.653 1608
284.661 1608
285.653 1800
286.661 1800
287.652 1512
288.66 1800
289.652 1800
290.66 1800
291.651 408
292.659 408
293.651 408
294.659 408
295.651 408
296.658 408
297.65 408
298.658 408
299.65 408
300.658 408
301.665 408
302.657 408
303.649 408


newcurve
linetype solid color 0.0 0.5 1.0
pts
-0.273127 408
0.718642 408
1.7265 408
2.71822 408
3.72602 408
4.71782 408
5.72564 408
6.71743 408
7.70923 408
8.71704 408
9.72484 408
10.7166 408
11.7084 408
12.7162 408
13.724 408
14.7158 408
15.7076 408
16.7154 408
17.7233 408
18.715 408
19.7068 408
20.7146 408
21.7064 408
22.7142 408
23.706 408
24.7138 408
25.7056 408
26.7134 408
27.7052 408
28.713 408
29.7047 408
30.7126 408
31.7044 408
32.7122 408
33.7039 408
34.7117 1800
35.7195 1800
36.7114 1800
37.7031 1800
38.711 1800
39.7027 1800
40.7105 1800
41.7023 1800
42.7102 1800
43.7019 1800
44.7097 1800
45.7015 1800
46.7094 1800
47.7011 1800
48.7089 1800
49.7169 1800
50.7087 1800
51.7005 1800
52.7082 1800
53.7 1800
54.7078 1608
55.7156 1800
56.7074 1800
57.6992 1800
58.7071 1512
59.7148 1416
60.7065 1608
61.6984 1416
62.7062 1200
63.714 1416
64.7057 1416
65.7135 1800
66.7054 1416
67.7132 1200
68.705 1008
69.7128 1200
70.7046 1200
71.7124 1008
72.7042 1008
73.7118 1800
74.7038 1008
75.7115 1008
76.7034 1008
77.7112 816
78.7029 816
79.7108 816
80.7024 1008
81.7104 1200
82.7021 816
83.7099 1008
84.7017 816
85.7095 1008
86.7013 816
87.7091 816
88.7009 1200
89.7088 1008
90.7005 816
91.7083 816
92.7001 816
93.7079 816
94.6997 600
95.7073 816
96.6991 1416
97.7071 1008
98.6988 816
99.7067 600
100.698 600
101.706 600
102.698 816
103.706 1008
104.714 1416
105.705 816
106.697 816
107.705 600
108.697 600
109.705 600
110.712 600
111.704 1200
112.696 816
113.704 816
114.712 600
115.703 600
116.695 600
117.703 600
118.711 1008
119.703 1416
120.694 816
121.702 600
122.694 600
123.702 408
124.71 408
125.701 1008
126.693 1008
127.701 816
128.709 816
129.701 600
130.692 600
131.7 600
132.708 816
133.7 1008
134.692 1008
135.699 408
136.707 408
137.699 408
138.691 600
139.698 600
140.69 1008
141.698 1416
142.69 816
143.698 600
144.689 600
145.697 600
146.705 816
147.697 1008
148.689 1200
149.696 600
150.704 408
151.696 408
152.688 408
153.696 816
154.687 1008
155.695 1008
156.687 600
157.695 600
158.687 600
159.694 408
160.686 1008
161.694 1416
162.686 1008
163.694 816
164.701 408
165.693 408
166.685 816
167.693 1416
168.685 816
169.692 408
170.684 408
171.692 408
172.684 816
173.692 1200
174.683 600
175.691 408
176.683 600
177.691 408
178.683 816
179.69 1008
180.682 600
181.69 600
182.698 408
183.69 408
184.681 816
185.689 1200
186.681 1008
187.689 408
188.681 408
189.688 600
190.68 816
191.688 1008
192.68 600
193.687 600
194.679 408
195.687 1008
196.695 1200
197.687 816
198.679 408
199.686 408
200.678 816
201.686 1008
202.678 600
203.686 600
204.677 408
205.685 1008
206.677 408
207.685 408
208.676 408
209.684 816
210.676 1008
211.684 408
212.676 408
213.683 600
214.675 1008
215.683 816
216.675 408
217.683 408
218.674 1008
219.682 816
220.674 408
221.682 408
222.673 1008
223.681 816
224.673 408
225.681 408
226.673 1008
227.681 600
228.672 600
229.68 408
230.672 1008
231.68 408
232.672 408
233.679 1008
234.671 816
235.679 408
236.671 1008
237.679 816
238.67 408
239.678 816
240.67 600
241.678 408
242.67 1008
243.677 408
244.669 600
245.661 816
246.669 408
247.676 816
248.668 408
249.66 600
250.668 600
251.676 600
252.668 816
253.659 408
254.667 600
255.675 408
256.667 600
257.658 1008
258.666 408
259.658 600
260.666 408
261.658 408
262.665 600
263.657 600
264.665 816
265.657 600
266.665 600
267.656 816
268.664 600
269.656 600
270.664 816
271.655 1416
272.663 1416
273.655 1416
274.663 1512
275.655 1608
276.663 1800
277.654 1608
278.662 1608
279.654 1800
280.662 1800
281.654 1608
282.661 1608
283.653 1608
284.661 1608
285.653 1800
286.661 1800
287.652 1512
288.66 1800
289.652 1800
290.66 1800
291.651 408
292.659 408
293.651 408
294.659 408
295.651 408
296.658 408
297.65 408
298.658 408
299.65 408
300.658 408
301.665 408
302.657 408
303.649 408

